File: test_cases/tga/f10_10000_100_test-OUTPUT.csv
best fitness,generation of best fitness,function evaluations of best fitness,optimal value,relative error
60614.7,10000,40200,0,60614.7
57032.6,10000,40200,0,57032.6
82531.9,10000,40200,0,82531.9
84364,10000,40200,0,84364
75503,10000,40200,0,75503
107760,10000,40200,0,107760
73368.7,10000,40200,0,73368.7
93477,10000,40200,0,93477
84905.2,10000,40200,0,84905.2
73114.3,10000,40200,0,73114.3
49582.5,10000,40200,0,49582.5
68852.5,10000,40200,0,68852.5
60992.6,10000,40200,0,60992.6
87788.8,10000,40200,0,87788.8
53852.2,10000,40200,0,53852.2
85390.7,10000,40200,0,85390.7
69799.1,10000,40200,0,69799.1
92926.7,10000,40200,0,92926.7
76334.4,10000,40200,0,76334.4
66302.9,10000,40200,0,66302.9
53082.5,10000,40200,0,53082.5
75765.9,10000,40200,0,75765.9
95311.7,10000,40200,0,95311.7
74119.3,10000,40200,0,74119.3
97089.5,10000,40200,0,97089.5
63576.1,10000,40200,0,63576.1
77525.9,10000,40200,0,77525.9
68659.9,10000,40200,0,68659.9
65154.7,10000,40200,0,65154.7
71306,10000,40200,0,71306
46789.9,10000,40200,0,46789.9
78049.9,10000,40200,0,78049.9
101754,10000,40200,0,101754
83532.4,10000,40200,0,83532.4
63077.5,10000,40200,0,63077.5
60586.8,10000,40200,0,60586.8
42310.4,10000,40200,0,42310.4
99266.8,10000,40200,0,99266.8
78185.7,10000,40200,0,78185.7
86069.3,10000,40200,0,86069.3
81110.5,10000,40200,0,81110.5
87993.2,10000,40200,0,87993.2
71039.5,10000,40200,0,71039.5
75731.4,10000,40200,0,75731.4
58286.7,10000,40200,0,58286.7
69109.4,10000,40200,0,69109.4
69104.7,10000,40200,0,69104.7
70068.8,10000,40200,0,70068.8
81016.6,10000,40200,0,81016.6
36794.5,10000,40200,0,36794.5