File: test_cases/tga/f10_10000_30_test-OUTPUT.csv
best fitness,generation of best fitness,function evaluations of best fitness,optimal value,relative error
1481.61,10000,40200,0,1481.61
2044.12,10000,40200,0,2044.12
1337.59,10000,40200,0,1337.59
1512.06,10000,40200,0,1512.06
2058.11,10000,40200,0,2058.11
1026.8,10000,40200,0,1026.8
1280.03,10000,40200,0,1280.03
1557.27,10000,40200,0,1557.27
1216.73,10000,40200,0,1216.73
589.453,10000,40200,0,589.453
665.662,10000,40200,0,665.662
1047.41,10000,40200,0,1047.41
1099.64,10000,40200,0,1099.64
1783.45,10000,40200,0,1783.45
1375.74,10000,40200,0,1375.74
1010.19,10000,40200,0,1010.19
1783.58,10000,40200,0,1783.58
1855.66,10000,40200,0,1855.66
1299.5,10000,40200,0,1299.5
1735.44,10000,40200,0,1735.44
1285.27,10000,40200,0,1285.27
1969.32,10000,40200,0,1969.32
2314.02,10000,40200,0,2314.02
1296.61,10000,40200,0,1296.61
1217.18,10000,40200,0,1217.18
866.551,10000,40200,0,866.551
1305.27,10000,40200,0,1305.27
1728.65,10000,40200,0,1728.65
1814.34,10000,40200,0,1814.34
1150.45,10000,40200,0,1150.45
1387.37,10000,40200,0,1387.37
966.088,10000,40200,0,966.088
1355.05,10000,40200,0,1355.05
1295.61,10000,40200,0,1295.61
1889.91,10000,40200,0,1889.91
1630.47,10000,40200,0,1630.47
1123.63,10000,40200,0,1123.63
1288.94,10000,40200,0,1288.94
1864.23,10000,40200,0,1864.23
1361.29,10000,40200,0,1361.29
1216.27,10000,40200,0,1216.27
1121.58,10000,40200,0,1121.58
1831.08,10000,40200,0,1831.08
1270.54,10000,40200,0,1270.54
1571.07,10000,40200,0,1571.07
1075.63,10000,40200,0,1075.63
1057.96,10000,40200,0,1057.96
2670.48,10000,40200,0,2670.48
1223.61,10000,40200,0,1223.61
477.946,10000,40200,0,477.946