File: test_cases/tga/f10_10000_1000_test-OUTPUT.csv
best fitness,generation of best fitness,function evaluations of best fitness,optimal value,relative error
3.91096e+07,10000,40200,0,3.91096e+07
4.05259e+07,10000,40200,0,4.05259e+07
3.84975e+07,10000,40200,0,3.84975e+07
3.74918e+07,10000,40200,0,3.74918e+07
3.82337e+07,10000,40200,0,3.82337e+07
4.27694e+07,10000,40200,0,4.27694e+07
3.26436e+07,10000,40200,0,3.26436e+07
3.92872e+07,10000,40200,0,3.92872e+07
3.74424e+07,10000,40200,0,3.74424e+07
3.93245e+07,10000,40200,0,3.93245e+07
3.93234e+07,10000,40200,0,3.93234e+07
4.07225e+07,10000,40200,0,4.07225e+07
3.81009e+07,10000,40200,0,3.81009e+07
4.24437e+07,10000,40200,0,4.24437e+07
3.61245e+07,10000,40200,0,3.61245e+07
3.73504e+07,10000,40200,0,3.73504e+07
4.1353e+07,10000,40200,0,4.1353e+07
3.80412e+07,10000,40200,0,3.80412e+07
3.56923e+07,10000,40200,0,3.56923e+07
4.12305e+07,10000,40200,0,4.12305e+07
3.35569e+07,10000,40200,0,3.35569e+07
3.89258e+07,10000,40200,0,3.89258e+07
3.84511e+07,10000,40200,0,3.84511e+07
4.07376e+07,10000,40200,0,4.07376e+07
3.84534e+07,10000,40200,0,3.84534e+07
4.09168e+07,10000,40200,0,4.09168e+07
3.85768e+07,10000,40200,0,3.85768e+07
4.3191e+07,10000,40200,0,4.3191e+07
3.7806e+07,10000,40200,0,3.7806e+07
3.79422e+07,10000,40200,0,3.79422e+07
3.81182e+07,10000,40200,0,3.81182e+07
3.91818e+07,10000,40200,0,3.91818e+07
3.49716e+07,10000,40200,0,3.49716e+07
3.80761e+07,10000,40200,0,3.80761e+07
3.8659e+07,10000,40200,0,3.8659e+07
3.88377e+07,10000,40200,0,3.88377e+07
3.4234e+07,10000,40200,0,3.4234e+07
3.55667e+07,10000,40200,0,3.55667e+07
3.7395e+07,10000,40200,0,3.7395e+07
3.92463e+07,10000,40200,0,3.92463e+07
3.73173e+07,10000,40200,0,3.73173e+07
4.21339e+07,10000,40200,0,4.21339e+07
3.64131e+07,10000,40200,0,3.64131e+07
3.935e+07,10000,40200,0,3.935e+07
4.10108e+07,10000,40200,0,4.10108e+07
4.31805e+07,10000,40200,0,4.31805e+07
3.77126e+07,10000,40200,0,3.77126e+07
3.77936e+07,10000,40200,0,3.77936e+07
3.83053e+07,10000,40200,0,3.83053e+07
3.71145e+07,10000,40200,0,3.71145e+07